alpha(x) =  0.500  beta(v) =  0.700  delta (t) = 0.050Free stream: density =  1.000  velocity = -1.000  temperature =  1.000  Execution time =    19.08 s
vxmax=   7.00  vxmin=  -7.00  vymax=   7.00  vymin=  -7.00  vzmax=   7.00  vzmin=  -7.00
x, t=      0.0, t=      5.0, t=     10.0, t=     15.0, t=     20.0, t=     25.0, t=     30.0, t=     35.0, t=     40.0, t=     45.0, t=     50.0,
    0.000000,       1.000000,       1.614202,       1.641586,       1.649798,       1.653527,       1.655521,       1.656660,       1.657329,       1.657719,       1.657938,       1.658047,
    0.500000,       1.000000,       1.616003,       1.641988,       1.649960,       1.653606,       1.655563,       1.656685,       1.657343,       1.657727,       1.657942,       1.658049,
    1.000000,       1.000000,       1.619814,       1.643036,       1.650388,       1.653815,       1.655676,       1.656749,       1.657380,       1.657748,       1.657953,       1.658053,
    1.500000,       1.000000,       1.624474,       1.644633,       1.651059,       1.654146,       1.655856,       1.656851,       1.657439,       1.657781,       1.657970,       1.658060,
    2.000000,       1.000000,       1.628576,       1.646636,       1.651937,       1.654584,       1.656095,       1.656988,       1.657518,       1.657826,       1.657993,       1.658069,
    2.500000,       1.000000,       1.630629,       1.648874,       1.652977,       1.655113,       1.656385,       1.657155,       1.657614,       1.657880,       1.658020,       1.658078,
    3.000000,       1.000000,       1.629140,       1.651157,       1.654128,       1.655711,       1.656717,       1.657346,       1.657725,       1.657941,       1.658051,       1.658088,
    3.500000,       1.000000,       1.622647,       1.653292,       1.655333,       1.656355,       1.657079,       1.657555,       1.657846,       1.658008,       1.658083,       1.658098,
    4.000000,       1.000000,       1.609734,       1.655089,       1.656537,       1.657022,       1.657459,       1.657776,       1.657974,       1.658078,       1.658115,       1.658106,
    4.500000,       1.000000,       1.589079,       1.656370,       1.657687,       1.657688,       1.657845,       1.658002,       1.658103,       1.658148,       1.658146,       1.658111,
    5.000000,       1.000000,       1.559585,       1.656960,       1.658733,       1.658329,       1.658224,       1.658225,       1.658231,       1.658215,       1.658173,       1.658112,
    5.500000,       1.000000,       1.520628,       1.656689,       1.659631,       1.658925,       1.658584,       1.658438,       1.658352,       1.658276,       1.658196,       1.658108,
    6.000000,       1.000000,       1.472438,       1.655376,       1.660345,       1.659457,       1.658914,       1.658635,       1.658462,       1.658329,       1.658211,       1.658097,
    6.500000,       1.000000,       1.416481,       1.652816,       1.660844,       1.659908,       1.659205,       1.658809,       1.658557,       1.658372,       1.658217,       1.658079,
    7.000000,       1.000000,       1.355638,       1.648764,       1.661102,       1.660267,       1.659447,       1.658954,       1.658634,       1.658400,       1.658212,       1.658051,
    7.500000,       1.000000,       1.293875,       1.642915,       1.661099,       1.660524,       1.659635,       1.659067,       1.658689,       1.658413,       1.658195,       1.658013,
    8.000000,       1.000000,       1.235364,       1.634889,       1.660812,       1.660674,       1.659764,       1.659142,       1.658718,       1.658408,       1.658165,       1.657965,
    8.500000,       1.000000,       1.183433,       1.624218,       1.660221,       1.660713,       1.659829,       1.659177,       1.658721,       1.658383,       1.658119,       1.657904,
    9.000000,       1.000000,       1.139897,       1.610337,       1.659298,       1.660641,       1.659830,       1.659170,       1.658694,       1.658338,       1.658058,       1.657831,
    9.500000,       1.000000,       1.105041,       1.592600,       1.658005,       1.660459,       1.659766,       1.659120,       1.658638,       1.658270,       1.657979,       1.657744,
   10.000000,       1.000000,       1.078082,       1.570314,       1.656293,       1.660169,       1.659639,       1.659027,       1.658550,       1.658179,       1.657883,       1.657644,
   10.500000,       1.000000,       1.057727,       1.542823,       1.654092,       1.659775,       1.659451,       1.658891,       1.658431,       1.658065,       1.657770,       1.657529,
   11.000000,       1.000000,       1.042592,       1.509629,       1.651305,       1.659278,       1.659205,       1.658714,       1.658282,       1.657929,       1.657638,       1.657400,
   11.500000,       1.000000,       1.031436,       1.470584,       1.647804,       1.658680,       1.658907,       1.658498,       1.658104,       1.657769,       1.657489,       1.657257,
   12.000000,       1.000000,       1.023248,       1.426094,       1.643421,       1.657978,       1.658561,       1.658245,       1.657897,       1.657588,       1.657322,       1.657101,
   12.500000,       1.000000,       1.017241,       1.377295,       1.637936,       1.657169,       1.658171,       1.657960,       1.657664,       1.657385,       1.657138,       1.656931,
   13.000000,       1.000000,       1.012829,       1.326077,       1.631071,       1.656241,       1.657743,       1.657646,       1.657407,       1.657164,       1.656939,       1.656748,
   13.500000,       1.000000,       1.009579,       1.274866,       1.622481,       1.655180,       1.657281,       1.657306,       1.657128,       1.656923,       1.656725,       1.656553,
   14.000000,       1.000000,       1.007177,       1.226181,       1.611743,       1.653960,       1.656788,       1.656944,       1.656830,       1.656667,       1.656496,       1.656346,
   14.500000,       1.000000,       1.005392,       1.182117,       1.598362,       1.652549,       1.656269,       1.656564,       1.656516,       1.656396,       1.656256,       1.656130,
   15.000000,       1.000000,       1.004062,       1.143984,       1.581772,       1.650899,       1.655725,       1.656170,       1.656188,       1.656112,       1.656004,       1.655904,
   15.500000,       1.000000,       1.003066,       1.112223,       1.561370,       1.648949,       1.655156,       1.655765,       1.655849,       1.655818,       1.655742,       1.655670,
   16.000000,       1.000000,       1.002318,       1.086573,       1.536566,       1.646617,       1.654561,       1.655352,       1.655502,       1.655515,       1.655472,       1.655430,
   16.500000,       1.000000,       1.001754,       1.066336,       1.506875,       1.643798,       1.653937,       1.654935,       1.655149,       1.655206,       1.655196,       1.655183,
   17.000000,       1.000000,       1.001328,       1.050636,       1.472049,       1.640359,       1.653277,       1.654516,       1.654793,       1.654892,       1.654915,       1.654933,
   17.500000,       1.000000,       1.001005,       1.038594,       1.432240,       1.636129,       1.652572,       1.654097,       1.654437,       1.654575,       1.654630,       1.654680,
   18.000000,       1.000000,       1.000760,       1.029422,       1.388153,       1.630895,       1.651809,       1.653679,       1.654082,       1.654258,       1.654342,       1.654425,
   18.500000,       1.000000,       1.000575,       1.022462,       1.341120,       1.624392,       1.650971,       1.653262,       1.653730,       1.653942,       1.654055,       1.654171,
   19.000000,       1.000000,       1.000433,       1.017189,       1.293028,       1.616298,       1.650033,       1.652848,       1.653383,       1.653628,       1.653768,       1.653918,
   19.500000,       1.000000,       1.000326,       1.013192,       1.246038,       1.606223,       1.648965,       1.652434,       1.653042,       1.653317,       1.653483,       1.653667,
   20.000000,       1.000000,       1.000245,       1.010158,       1.202191,       1.593710,       1.647728,       1.652020,       1.652709,       1.653013,       1.653201,       1.653421,
   20.500000,       1.000000,       1.000183,       1.007850,       1.163030,       1.578242,       1.646270,       1.651603,       1.652384,       1.652714,       1.652924,       1.653181,
   21.000000,       1.000000,       1.000137,       1.006089,       1.129402,       1.559258,       1.644528,       1.651178,       1.652067,       1.652423,       1.652652,       1.652947,
   21.500000,       1.000000,       1.000102,       1.004740,       1.101465,       1.536200,       1.642418,       1.650740,       1.651760,       1.652140,       1.652386,       1.652722,
   22.000000,       1.000000,       1.000075,       1.003704,       1.078862,       1.508584,       1.639839,       1.650282,       1.651462,       1.651865,       1.652127,       1.652506,
   22.500000,       1.000000,       1.000055,       1.002905,       1.060940,       1.476110,       1.636661,       1.649795,       1.651172,       1.651600,       1.651875,       1.652301,
   23.000000,       1.000000,       1.000041,       1.002287,       1.046934,       1.438804,       1.632721,       1.649266,       1.650891,       1.651344,       1.651632,       1.652109,
   23.500000,       1.000000,       1.000030,       1.001806,       1.036097,       1.397164,       1.627817,       1.648681,       1.650617,       1.651099,       1.651397,       1.651931,
   24.000000,       1.000000,       1.000022,       1.001432,       1.027764,       1.352258,       1.621702,       1.648019,       1.650348,       1.650863,       1.651171,       1.651768,
   24.500000,       1.000000,       1.000016,       1.001139,       1.021378,       1.305702,       1.614072,       1.647256,       1.650083,       1.650637,       1.650955,       1.651621,
   25.000000,       1.000000,       1.000011,       1.000908,       1.016493,       1.259471,       1.604561,       1.646361,       1.649819,       1.650420,       1.650748,       1.651493,
   25.500000,       1.000000,       1.000008,       1.000727,       1.012755,       1.215564,       1.592742,       1.645294,       1.649553,       1.650213,       1.650550,       1.651385,
   26.000000,       1.000000,       1.000006,       1.000583,       1.009892,       1.175635,       1.578124,       1.644007,       1.649280,       1.650015,       1.650362,       1.651299,
   26.500000,       1.000000,       1.000004,       1.000469,       1.007696,       1.140746,       1.560172,       1.642436,       1.648997,       1.649825,       1.650184,       1.651237,
   27.000000,       1.000000,       1.000003,       1.000378,       1.006006,       1.111296,       1.538343,       1.640505,       1.648697,       1.649642,       1.650015,       1.651200,
   27.500000,       1.000000,       1.000002,       1.000306,       1.004703,       1.087132,       1.512146,       1.638113,       1.648372,       1.649467,       1.649856,       1.651192,
   28.000000,       1.000000,       1.000001,       1.000248,       1.003695,       1.067742,       1.481243,       1.635139,       1.648013,       1.649297,       1.649706,       1.651213,
   28.500000,       1.000000,       1.000001,       1.000201,       1.002912,       1.052435,       1.445572,       1.631429,       1.647606,       1.649131,       1.649566,       1.651266,
   29.000000,       1.000000,       1.000001,       1.000164,       1.002303,       1.040493,       1.405495,       1.626791,       1.647139,       1.648969,       1.649434,       1.651355,
   29.500000,       1.000000,       1.000000,       1.000134,       1.001827,       1.031248,       1.361907,       1.620990,       1.646590,       1.648807,       1.649312,       1.651481,
   30.000000,       1.000000,       1.000000,       1.000109,       1.001455,       1.024124,       1.316249,       1.613739,       1.645938,       1.648645,       1.649198,       1.651646,
   30.500000,       1.000000,       1.000000,       1.000089,       1.001162,       1.018650,       1.270372,       1.604692,       1.645151,       1.648479,       1.649093,       1.651853,
   31.000000,       1.000000,       1.000000,       1.000073,       1.000930,       1.014446,       1.226246,       1.593438,       1.644193,       1.648306,       1.648997,       1.652105,
   31.500000,       1.000000,       1.000000,       1.000060,       1.000747,       1.011216,       1.185602,       1.579508,       1.643016,       1.648122,       1.648909,       1.652403,
   32.000000,       1.000000,       1.000000,       1.000049,       1.000602,       1.008732,       1.149653,       1.562383,       1.641560,       1.647923,       1.648829,       1.652749,
   32.500000,       1.000000,       1.000000,       1.000041,       1.000487,       1.006817,       1.118972,       1.541528,       1.639753,       1.647703,       1.648758,       1.653143,
   33.000000,       1.000000,       1.000000,       1.000034,       1.000394,       1.005339,       1.093559,       1.516443,       1.637499,       1.647453,       1.648694,       1.653587,
   33.500000,       1.000000,       1.000000,       1.000028,       1.000320,       1.004194,       1.073001,       1.486755,       1.634682,       1.647166,       1.648638,       1.654080,
   34.000000,       1.000000,       1.000000,       1.000023,       1.000261,       1.003304,       1.056668,       1.452335,       1.631155,       1.646829,       1.648589,       1.654620,
   34.500000,       1.000000,       1.000000,       1.000019,       1.000213,       1.002612,       1.043858,       1.413438,       1.626737,       1.646428,       1.648546,       1.655203,
   35.000000,       1.000000,       1.000000,       1.000016,       1.000174,       1.002071,       1.033901,       1.370825,       1.621204,       1.645944,       1.648509,       1.655826,
   35.500000,       1.000000,       1.000000,       1.000013,       1.000143,       1.001647,       1.026205,       1.325799,       1.614280,       1.645356,       1.648476,       1.656480,
   36.000000,       1.000000,       1.000000,       1.000011,       1.000117,       1.001313,       1.020275,       1.280113,       1.605634,       1.644635,       1.648446,       1.657157,
   36.500000,       1.000000,       1.000000,       1.000009,       1.000097,       1.001051,       1.015713,       1.235710,       1.594872,       1.643744,       1.648416,       1.657843,
   37.000000,       1.000000,       1.000000,       1.000007,       1.000080,       1.000843,       1.012203,       1.194385,       1.581540,       1.642638,       1.648382,       1.658522,
   37.500000,       1.000000,       1.000000,       1.000006,       1.000066,       1.000678,       1.009501,       1.157469,       1.565132,       1.641261,       1.648340,       1.659174,
   38.000000,       1.000000,       1.000000,       1.000005,       1.000055,       1.000547,       1.007417,       1.125684,       1.545116,       1.639540,       1.648282,       1.659773,
   38.500000,       1.000000,       1.000000,       1.000004,       1.000045,       1.000443,       1.005806,       1.099156,       1.520985,       1.637386,       1.648200,       1.660287,
   39.000000,       1.000000,       1.000000,       1.000003,       1.000038,       1.000359,       1.004558,       1.077563,       1.492335,       1.634685,       1.648079,       1.660678,
   39.500000,       1.000000,       1.000000,       1.000003,       1.000031,       1.000292,       1.003589,       1.060322,       1.458979,       1.631296,       1.647903,       1.660897,
   40.000000,       1.000000,       1.000000,       1.000002,       1.000026,       1.000238,       1.002835,       1.046749,       1.421081,       1.627044,       1.647647,       1.660890,
   40.500000,       1.000000,       1.000000,       1.000002,       1.000022,       1.000194,       1.002245,       1.036168,       1.379286,       1.621710,       1.647281,       1.660586,
   41.000000,       1.000000,       1.000000,       1.000002,       1.000018,       1.000159,       1.001783,       1.027971,       1.334778,       1.615027,       1.646761,       1.659905,
   41.500000,       1.000000,       1.000000,       1.000001,       1.000015,       1.000131,       1.001420,       1.021646,       1.289219,       1.606671,       1.646030,       1.658748,
   42.000000,       1.000000,       1.000000,       1.000001,       1.000013,       1.000107,       1.001135,       1.016774,       1.244525,       1.596256,       1.645015,       1.657001,
   42.500000,       1.000000,       1.000000,       1.000001,       1.000011,       1.000088,       1.000909,       1.013023,       1.202535,       1.583332,       1.643617,       1.654529,
   43.000000,       1.000000,       1.000000,       1.000001,       1.000009,       1.000073,       1.000729,       1.010132,       1.164692,       1.567390,       1.641707,       1.651175,
   43.500000,       1.000000,       1.000000,       1.000001,       1.000008,       1.000060,       1.000587,       1.007902,       1.131844,       1.547889,       1.639117,       1.646759,
   44.000000,       1.000000,       1.000000,       1.000001,       1.000006,       1.000050,       1.000473,       1.006177,       1.104237,       1.524294,       1.635631,       1.641079,
   44.500000,       1.000000,       1.000000,       1.000000,       1.000005,       1.000041,       1.000383,       1.004840,       1.081634,       1.496152,       1.630969,       1.633910,
   45.000000,       1.000000,       1.000000,       1.000000,       1.000005,       1.000034,       1.000310,       1.003800,       1.063495,       1.463193,       1.624776,       1.625006,
   45.500000,       1.000000,       1.000000,       1.000000,       1.000004,       1.000028,       1.000251,       1.002989,       1.049152,       1.425468,       1.616602,       1.614108,
   46.000000,       1.000000,       1.000000,       1.000000,       1.000003,       1.000023,       1.000203,       1.002354,       1.037921,       1.383471,       1.605886,       1.600953,
   46.500000,       1.000000,       1.000000,       1.000000,       1.000003,       1.000019,       1.000164,       1.001854,       1.029177,       1.338225,       1.591939,       1.585280,
   47.000000,       1.000000,       1.000000,       1.000000,       1.000002,       1.000016,       1.000133,       1.001458,       1.022384,       1.291230,       1.573923,       1.566840,
   47.500000,       1.000000,       1.000000,       1.000000,       1.000002,       1.000013,       1.000107,       1.001143,       1.017096,       1.244258,       1.550827,       1.545389,
   48.000000,       1.000000,       1.000000,       1.000000,       1.000001,       1.000010,       1.000085,       1.000888,       1.012952,       1.198996,       1.521396,       1.520619,
   48.500000,       1.000000,       1.000000,       1.000000,       1.000001,       1.000008,       1.000066,       1.000679,       1.009659,       1.156637,       1.483908,       1.491890,
   49.000000,       1.000000,       1.000000,       1.000000,       1.000001,       1.000006,       1.000050,       1.000501,       1.006966,       1.117480,       1.435404,       1.457318,
   49.500000,       1.000000,       1.000000,       1.000000,       1.000001,       1.000004,       1.000035,       1.000342,       1.004642,       1.080520,       1.369130,       1.410725,
